Time (s)	Load (uN)	Indentation (nm)
0	23.574518	7232.075188
0.001	23.576744	7229.807078
0.002	23.577918	7213.49655
0.003	23.576963	7231.733641
0.004	23.575159	7232.964148
0.005	23.5715	7233.964522
0.006	23.566289	7234.203073
0.007	23.560679	7239.879466
0.008	23.55408	7236.886812
0.009	23.547607	7243.173046
0.01	23.539861	7245.23343
0.011	23.531727	7246.858745
0.012	23.522618	7261.341825
0.013	23.513342	7251.872888
0.014	23.504139	7246.797503
0.015	23.494328	7252.571415
0.016	23.485065	7249.461411
0.017	23.475208	7259.156001
0.018	23.465733	7255.097162
0.019	23.456686	7258.317894
0.02	23.447616	7260.563214
0.021	23.43899	7260.789447
0.022	23.431293	7266.757279
0.023	23.423165	7267.892525
0.024	23.416049	7260.079189
0.025	23.409198	7268.375341
0.026	23.402359	7273.24482
0.027	23.395859	7269.259673
0.028	23.388996	7266.303979
0.029	23.3828	7269.12652
0.03	23.375739	7275.49487
0.031	23.36943	7271.483119
0.032	23.36354	7272.305691
0.033	23.356753	7277.167933
0.034	23.351002	7287.756967
0.035	23.344317	7278.415551
0.036	23.337334	7273.519285
0.037	23.330839	7267.087121
0.038	23.323432	7274.482341
0.039	23.315453	7279.021801
0.04	23.308957	7282.375527
0.041	23.301952	7281.396633
0.042	23.295606	7281.304341
0.043	23.290533	7277.120063
0.044	23.285256	7290.089279
0.045	23.280864	7261.34531
0.046	23.275266	7289.527293
0.047	23.270001	7277.051939
0.048	23.265183	7283.107032
0.049	23.259627	7281.925821
0.05	23.255188	7284.502887
0.051	23.249081	7288.780922
0.052	23.243666	7289.047837
0.053	23.237116	7288.984106
0.054	23.229001	7292.563905
0.055	23.222011	7309.686793
0.056	23.213143	7286.950069
0.057	23.204076	7293.598648
0.058	23.194756	7292.943105
0.059	23.184494	7298.290696
0.06	23.174593	7296.737777
0.061	23.163784	7293.843772
0.062	23.153978	7299.61699
0.063	23.144543	7305.827551
0.064	23.135795	7308.51724
0.065	23.128027	7300.795032
0.066	23.120822	7297.88699
0.067	23.114301	7311.519234
0.068	23.107461	7300.24234
0.069	23.101551	7301.067644
0.07	23.09485	7309.832194
0.071	23.088607	7311.193429
0.072	23.081505	7308.760261
0.073	23.073923	7313.733571
0.074	23.066065	7307.981012
0.075	23.057595	7317.48186
0.076	23.049906	7322.959329
0.077	23.041904	7312.334077
0.078	23.034265	7312.422305
0.079	23.025804	7319.475597
0.08	23.01734	7315.764709
0.081	23.008492	7316.02193
0.082	22.999968	7317.21241
0.083	22.99158	7316.916135
0.084	22.984123	7319.425478
0.085	22.976713	7318.992527
0.086	22.968745	7323.530395
0.087	22.962095	7318.098418
0.088	22.954185	7315.778026
0.089	22.946705	7320.737146
0.09	22.939968	7324.613675
0.091	22.932653	7328.571062
0.092	22.925732	7323.177014
0.093	22.918847	7329.031458
0.094	22.912106	7332.419454
0.095	22.905558	7329.419616
0.096	22.898551	7324.526789
0.097	22.892285	7329.805443
0.098	22.886981	7332.992763
0.099	22.880218	7333.937256
0.1	22.874815	7338.606165
0.101	22.868994	7340.887064
0.102	22.863165	7340.23335
0.103	22.858751	7334.489087
0.104	22.853294	7333.293968
0.105	22.849111	7333.878253
0.106	22.845713	7336.799282
0.107	22.842257	7337.771201
0.108	22.839847	7334.682793
0.109	22.837633	7320.802653
0.11	22.835668	7333.30935
0.111	22.833999	7340.39251
0.112	22.832382	7340.129077
0.113	22.831634	7335.340645
0.114	22.830717	7338.404336
0.115	22.829344	7334.6818
0.116	22.828705	7340.642547
0.117	22.827259	7340.355189
0.118	22.824974	7338.227889
0.119	22.823265	7339.445145
0.12	22.82044	7347.179014
0.121	22.817585	7343.174225
0.122	22.814645	7344.563401
0.123	22.811485	7340.111814
0.124	22.809019	7338.988438
0.125	22.806902	7344.666216
0.126	22.80594	7342.354124
0.127	22.805474	7342.908483
0.128	22.804927	7339.559944
0.129	22.805883	7338.937163
0.13	22.806452	7338.368317
0.131	22.805752	7350.208989
0.132	22.806955	7351.508878
0.133	22.806116	7340.372442
0.134	22.806147	7343.793074
0.135	22.807299	7350.482258
0.136	22.806667	7337.84895
0.137	22.807074	7341.21723
0.138	22.806384	7341.802832
0.139	22.804953	7337.599141
0.14	22.803179	7340.782671
0.141	22.80039	7348.022219
0.142	22.798099	7358.617238
0.143	22.794538	7343.457291
0.144	22.790658	7345.467114
0.145	22.787018	7342.061146
0.146	22.782396	7347.59956
0.147	22.778636	7342.742504
0.148	22.774597	7346.242382
0.149	22.772019	7348.559589
0.15	22.769761	7348.875014
0.151	22.767983	7354.505495
0.152	22.768029	7349.606136
0.153	22.766802	7339.502394
0.154	22.767926	7344.727612
0.155	22.769138	7345.047666
0.156	22.769545	7345.969392
0.157	22.770714	7342.870442
0.158	22.770005	7335.630062
0.159	22.769324	7346.978768
0.16	22.765545	7345.549483
0.161	22.761597	7343.654394
0.162	22.75552	7351.353168
0.163	22.747685	7358.318999
0.164	22.74078	7346.561807
0.165	22.732621	7341.829916
0.166	22.727151	7351.401075
0.167	22.722289	7348.655112
0.168	22.718751	7352.574269
0.169	22.714425	7361.985613
0.17	22.711027	7356.099434
0.171	22.708543	7360.360726
0.172	22.705793	7355.851882
0.173	22.704429	7354.574513
0.174	22.702933	7344.019128
0.175	22.702769	7357.252785
0.176	22.701058	7355.534636
0.177	22.69927	7356.762937
0.178	22.696371	7353.253511
0.179	22.691771	7351.938794
0.18	22.687423	7353.52468
0.181	22.681797	7351.863997
0.182	22.677014	7371.12496
0.183	22.672051	7360.564489
0.184	22.666714	7379.902889
0.185	22.662012	7358.541455
0.186	22.656772	7355.848312
0.187	22.651259	7356.618314
0.188	22.645626	7354.469345
0.189	22.639391	7356.318734
0.19	22.633003	7349.871545
0.191	22.627003	7354.623823
0.192	22.621522	7368.110919
0.193	22.616741	7357.524874
0.194	22.612968	7366.369784
0.195	22.61028	7353.045197
0.196	22.607427	7363.718721
0.197	22.60464	7364.597249
0.198	22.602301	7368.83814
0.199	22.599466	7369.723511
0.2	22.596695	7372.067551
0.201	22.593984	7372.935601
0.202	22.591422	7366.443293
0.203	22.588205	7362.488994
0.204	22.584482	7373.284077
0.205	22.582151	7380.949012
0.206	22.579618	7366.134785
0.207	22.578486	7370.696483
0.208	22.578379	7371.689986
0.209	22.577441	7375.246065
0.21	22.57885	7374.559933
0.211	22.580842	7370.367459
0.212	22.583001	7365.172956
0.213	22.586291	7373.520663
0.214	22.588621	7367.323742
0.215	22.590627	7370.468583
0.216	22.592022	7367.827382
0.217	22.592845	7351.565853
0.218	22.593212	7373.532691
0.219	22.59175	7364.440341
0.22	22.590221	7367.100358
0.221	22.587892	7372.807849
0.222	22.584169	7369.413428
0.223	22.581067	7368.86809
0.224	22.577403	7379.654981
0.225	22.573537	7375.791253
0.226	22.571463	7387.334594
0.227	22.569781	7386.590967
0.228	22.568751	7380.373991
0.229	22.568879	7387.206225
0.23	22.570418	7374.269674
0.231	22.572497	7380.829457
0.232	22.574902	7383.918586
0.233	22.578003	7378.10323
0.234	22.581458	7383.492145
0.235	22.585522	7379.49955
0.236	22.58995	7374.966813
0.237	22.594628	7381.652825
0.238	22.597912	7355.75108
0.239	22.601407	7372.877325
0.24	22.60523	7370.875541
0.241	22.607961	7376.365643
0.242	22.612075	7366.494591
0.243	22.614873	7369.528814
0.244	22.616876	7374.141915
0.245	22.617667	7371.095661
0.246	22.617746	7367.65966
0.247	22.616833	7369.744282
0.248	22.613349	7368.273782
0.249	22.60984	7377.081733
0.25	22.604524	7374.399266
0.251	22.59874	7373.249827
0.252	22.59343	7370.077202
0.253	22.587437	7371.403421
0.254	22.581598	7369.77246
0.255	22.575774	7370.585871
0.256	22.570402	7366.932606
0.257	22.565516	7375.443662
0.258	22.561486	7373.559987
0.259	22.55865	7369.552582
0.26	22.555941	7378.738042
0.261	22.553432	7374.684837
0.262	22.550781	7378.480248
0.263	22.547977	7378.871804
0.264	22.544941	7378.806582
0.265	22.541385	7368.049591
0.266	22.538369	7384.617279
0.267	22.535088	7380.671957
0.268	22.532318	7375.676566
0.269	22.529968	7381.876267
0.27	22.52732	7381.75691
0.271	22.525161	7381.079814
0.272	22.523087	7380.390867
0.273	22.521135	7380.174259
0.274	22.518844	7377.55843
0.275	22.516466	7379.358443
0.276	22.514192	7383.590437
0.277	22.512388	7377.481635
0.278	22.511841	7378.536574
0.279	22.511493	7380.053072
0.28	22.511175	7382.543815
0.281	22.511362	7383.496281
0.282	22.511579	7377.105242
0.283	22.511959	7379.009409
0.284	22.512446	7378.941344
0.285	22.512631	7369.129757
0.286	22.512432	7376.496891
0.287	22.511036	7380.116808
0.288	22.509485	7380.822739
0.289	22.507405	7383.559678
0.29	22.504319	7384.479981
0.291	22.502377	7380.836961
0.292	22.499895	7390.480115
0.293	22.49701	7383.543694
0.294	22.49382	7378.117763
0.295	22.48923	7383.162324
0.296	22.483924	7379.010551
0.297	22.477577	7381.854101
0.298	22.471618	7386.600728
0.299	22.465807	7376.647931
0.3	22.461586	7384.08758
0.301	22.459569	7387.305018
0.302	22.458628	7382.543568
0.303	22.458565	7378.63792
0.304	22.45833	7384.542264
0.305	22.457543	7392.480826
0.306	22.455494	7385.427719
0.307	22.452991	7382.352245
0.308	22.450406	7389.073963
0.309	22.447405	7389.003803
0.31	22.4444	7394.316476
0.311	22.441254	7391.820036
0.312	22.437437	7389.906793
0.313	22.433237	7399.789886
0.314	22.42936	7392.502723
0.315	22.425275	7398.455351
0.316	22.421351	7391.664138
0.317	22.418113	7401.412872
0.318	22.41531	7393.975638
0.319	22.413782	7397.61418
0.32	22.413659	7396.652733
0.321	22.414176	7400.005471
0.322	22.415303	7396.912433
0.323	22.417313	7395.163873
0.324	22.419696	7391.406013
0.325	22.422491	7380.251253
0.326	22.426248	7392.448086
0.327	22.430432	7394.31018
0.328	22.434689	7393.715524
0.329	22.438778	7396.569538
0.33	22.442323	7402.435206
0.331	22.445186	7383.931602
0.332	22.44737	7395.858838
0.333	22.449208	7389.730579
0.334	22.450572	7392.4759
0.335	22.451243	7405.593006
0.336	22.451977	7392.279624
0.337	22.453026	7389.197397
0.338	22.453713	7394.97284
0.339	22.454201	7389.033272
0.34	22.454805	7384.545244
0.341	22.455937	7383.408651
0.342	22.458188	7391.412182
0.343	22.4609	7400.819229
0.344	22.464278	7383.222219
0.345	22.468048	7389.056445
0.346	22.471774	7375.325264
0.347	22.474759	7388.608528
0.348	22.477008	7386.337175
0.349	22.478564	7388.077021
0.35	22.479202	7391.902236
0.351	22.4793	7390.42075
0.352	22.478398	7387.12169
0.353	22.476582	7388.353882
0.354	22.47416	7377.438477
0.355	22.471553	7384.652684
0.356	22.468556	7396.324899
0.357	22.465054	7390.942489
0.358	22.461149	7394.912958
0.359	22.457086	7388.141063
0.36	22.453141	7386.245588
0.361	22.449226	7382.388776
0.362	22.445102	7389.32548
0.363	22.441129	7388.901745
0.364	22.437794	7393.281948
0.365	22.434741	7386.858304
0.366	22.431809	7394.607108
0.367	22.428858	7372.511893
0.368	22.4259	7388.092974
0.369	22.422501	7388.567691
0.37	22.419068	7394.429461
0.371	22.415184	7393.993247
0.372	22.411134	7383.794575
0.373	22.407084	7387.785227
0.374	22.402814	7393.763834
0.375	22.398587	7395.82198
0.376	22.39365	7399.936527
0.377	22.389039	7404.005569
0.378	22.383697	7392.519493
0.379	22.37726	7397.332751
0.38	22.3691	7402.386766
0.381	22.359461	7406.668704
0.382	22.349686	7405.098223
0.383	22.340737	7405.858737
0.384	22.334699	7404.255557
0.385	22.331032	7408.192741
0.386	22.329939	7398.559634
0.387	22.330742	7398.936798
0.388	22.332362	7399.689194
0.389	22.334543	7390.088021
0.39	22.336856	7402.486558
0.391	22.338459	7401.284007
0.392	22.339366	7412.411065
0.393	22.34021	7409.846721
0.394	22.340589	7400.497316
0.395	22.340493	7408.339327
0.396	22.340107	7413.775404
0.397	22.339533	7407.005563
0.398	22.338862	7410.034927
0.399	22.338162	7422.365008
0.4	22.33796	7405.757394
0.401	22.337623	7398.465041
0.402	22.337641	7402.376863
0.403	22.337825	7411.647606
0.404	22.337905	7404.297193
0.405	22.338473	7405.196381
0.406	22.339396	7405.556713
0.407	22.340993	7408.75874
0.408	22.342927	7396.745748
0.409	22.345513	7401.766697
0.41	22.348927	7392.482739
0.411	22.353055	7401.691889
0.412	22.357452	7400.588569
0.413	22.361206	7394.192759
0.414	22.364208	7396.709221
0.415	22.366232	7396.426596
0.416	22.367484	7403.1018
0.417	22.368075	7400.572753
0.418	22.368516	7395.618225
0.419	22.368162	7398.60341
0.42	22.367434	7407.512368
0.421	22.366305	7401.798494
0.422	22.365056	7403.440898
0.423	22.364205	7398.666814
0.424	22.363278	7402.221332
0.425	22.362869	7399.34263
0.426	22.362558	7403.300413
0.427	22.361687	7402.932734
0.428	22.360529	7398.201685
0.429	22.359287	7401.310832
0.43	22.358122	7404.409295
0.431	22.357577	7398.124579
0.432	22.357398	7401.574655
0.433	22.357688	7403.001962
0.434	22.358351	7401.441583
0.435	22.359095	7396.444822
0.436	22.359683	7402.723345
0.437	22.359622	7407.624762
0.438	22.358843	7397.947798
0.439	22.357405	7400.105875
0.44	22.355243	7401.875703
0.441	22.352226	7407.679187
0.442	22.34913	7405.17592
0.443	22.346046	7405.60663
0.444	22.343807	7404.451465
0.445	22.342309	7406.128478
0.446	22.341655	7409.155626
0.447	22.342265	7401.730989
0.448	22.343328	7416.750503
0.449	22.345486	7404.706229
0.45	22.348216	7406.282131
0.451	22.350959	7405.409726
0.452	22.353521	7400.648308
0.453	22.355429	7404.296105
0.454	22.356716	7393.352039
0.455	22.357314	7404.032899
0.456	22.357327	7406.477446
0.457	22.356874	7401.158543
0.458	22.356401	7404.649682
0.459	22.355706	7398.38595
0.46	22.355012	7401.418619
0.461	22.354307	7406.899304
0.462	22.35318	7404.120985
0.463	22.351568	7401.899653
0.464	22.349543	7412.946824
0.465	22.347797	7398.022662
0.466	22.346217	7405.582688
0.467	22.344855	7403.326451
0.468	22.343813	7406.407772
0.469	22.342892	7403.600584
0.47	22.342364	7406.610074
0.471	22.342085	7403.713311
0.472	22.342051	7404.696702
0.473	22.342356	7399.761125
0.474	22.342979	7400.163509
0.475	22.343866	7394.657351
0.476	22.345008	7407.708749
0.477	22.346703	7403.068397
0.478	22.347859	7406.821203
0.479	22.348272	7402.849273
0.48	22.347768	7402.43041
0.481	22.346639	7408.459523
0.482	22.344961	7404.77955
0.483	22.34279	7405.572007
0.484	22.340243	7410.820674
0.485	22.33723	7419.070083
0.486	22.334389	7412.127549
0.487	22.331494	7419.381936
0.488	22.328099	7415.941782
0.489	22.324291	7414.516448
0.49	22.320593	7411.118679
0.491	22.317072	7414.546188
0.492	22.313691	7418.932643
0.493	22.310572	7413.007564
0.494	22.307619	7415.866314
0.495	22.304634	7410.411791
0.496	22.301337	7404.511565
0.497	22.297482	7407.496366
0.498	22.29323	7413.472392
0.499	22.28917	7409.635815
0.5	22.285298	7414.090917
0.501	22.281804	7417.514721
0.502	22.278619	7414.534485
0.503	22.27545	7411.552108
0.504	22.27201	7417.414691
0.505	22.268017	7415.036602
0.506	22.263939	7435.177779
0.507	22.259901	7417.148744
0.508	22.256443	7408.335239
0.509	22.253282	7415.137465
0.51	22.250746	7415.491642
0.511	22.248692	7412.35351
0.512	22.247224	7419.897773
0.513	22.246591	7417.050509
0.514	22.246431	7416.094313
0.515	22.246803	7415.06374
0.516	22.247729	7413.955838
0.517	22.249291	7419.119885
0.518	22.251644	7405.580375
0.519	22.254598	7416.91082
0.52	22.257993	7416.925849
0.521	22.26137	7424.77219
0.522	22.26501	7421.32813
0.523	22.268872	7417.852914
0.524	22.272724	7415.357748
0.525	22.276783	7418.215871
0.526	22.280737	7415.217251
0.527	22.284704	7412.706038
0.528	22.288538	7426.360003
0.529	22.291807	7416.117579
0.53	22.294186	7413.828112
0.531	22.295951	7421.899661
0.532	22.29733	7416.324831
0.533	22.298451	7408.339569
0.534	22.299533	7413.081437
0.535	22.300718	7415.362314
0.536	22.302028	7420.072218
0.537	22.30329	7417.449588
0.538	22.304072	7409.022408
0.539	22.304761	7400.119001
0.54	22.305391	7421.070487
0.541	22.305914	7408.765228
0.542	22.306371	7415.551373
0.543	22.307002	7413.995441
0.544	22.307444	7410.997929
0.545	22.307281	7408.084974
0.546	22.30687	7413.035302
0.547	22.306262	7412.141596
0.548	22.30536	7419.606891
0.549	22.304404	7428.058332
0.55	22.303145	7413.55552
0.551	22.301664	7415.719536
0.552	22.300414	7415.894023
0.553	22.299167	7422.918238
0.554	22.298012	7414.272454
0.555	22.296845	7413.456878
0.556	22.296022	7410.63597
0.557	22.295769	7421.435725
0.558	22.295795	7414.092719
0.559	22.295626	7414.116357
0.56	22.295262	7408.785076
0.561	22.294727	7406.902554
0.562	22.293611	7417.33353
0.563	22.292234	7420.461531
0.564	22.290755	7420.178859
0.565	22.289479	7412.528367
0.566	22.28842	7421.483482
0.567	22.287339	7417.720195
0.568	22.286338	7419.327855
0.569	22.28514	7414.113079
0.57	22.284107	7412.789401
0.571	22.28283	7417.860663
0.572	22.28121	7419.065543
0.573	22.279577	7415.379252
0.574	22.277598	7422.505672
0.575	22.275195	7416.480533
0.576	22.272413	7411.486868
0.577	22.270128	7417.677461
0.578	22.267606	7420.476148
0.579	22.265848	7422.678836
0.58	22.265373	7414.916642
0.581	22.265582	7420.758905
0.582	22.266529	7401.544308
0.583	22.267388	7408.274411
0.584	22.268486	7415.460395
0.585	22.269754	7416.26184
0.586	22.271009	7415.597297
0.587	22.271587	7416.495179
0.588	22.271264	7411.647448
0.589	22.270513	7416.645227
0.59	22.269186	7422.212686
0.591	22.267313	7421.985008
0.592	22.264653	7420.888582
0.593	22.261468	7420.844252
0.594	22.257419	7421.898928
0.595	22.252439	7423.083756
0.596	22.246813	7426.315929
0.597	22.241122	7419.771547
0.598	22.235512	7415.172875
0.599	22.229885	7420.362328
0.6	22.224407	7417.213123
0.601	22.219274	7420.376418
0.602	22.214458	7426.4313
0.603	22.209699	7413.885066
0.604	22.205027	7414.537631
0.605	22.200492	7427.403243
0.606	22.196614	7421.094735
0.607	22.193471	7420.065952
0.608	22.191261	7426.246015
0.609	22.189599	7425.988923
0.61	22.188129	7425.70493
0.611	22.186644	7429.826659
0.612	22.184793	7422.745752
0.613	22.182821	7426.446205
0.614	22.180628	7445.345524
0.615	22.178555	7429.977819
0.616	22.177015	7430.192878
0.617	22.17583	7425.46551
0.618	22.175033	7422.641048
0.619	22.174187	7426.673452
0.62	22.173424	7417.483514
0.621	22.173177	7420.943075
0.622	22.173786	7429.66529
0.623	22.175109	7430.948323
0.624	22.176808	7423.861063
0.625	22.179227	7419.119512
0.626	22.181701	7426.113344
0.627	22.185029	7422.712801
0.628	22.188563	7425.155032
0.629	22.192229	7421.707194
0.63	22.195499	7423.20773
0.631	22.198197	7419.405829
0.632	22.20063	7424.448208
0.633	22.202772	7422.681226
0.634	22.20548	7419.856523
0.635	22.208426	7426.784443
0.636	22.211523	7431.73405
0.637	22.214767	7422.963028
0.638	22.218504	7428.80187
0.639	22.222495	7418.458684
0.64	22.226524	7421.810247
0.641	22.230535	7416.3572
0.642	22.23443	7416.302501
0.643	22.238057	7420.688793
0.644	22.241223	7411.928736
0.645	22.243962	7413.992671
0.646	22.246363	7419.039494
0.647	22.248397	7413.862509
0.648	22.249974	7417.556632
0.649	22.251284	7411.012934
0.65	22.252292	7417.72214
0.651	22.253043	7412.724338
0.652	22.253281	7416.605422
0.653	22.252853	7418.622357
0.654	22.25191	7415.329099
0.655	22.250376	7417.011132
0.656	22.248796	7419.188945
0.657	22.247239	7415.98143
0.658	22.24551	7420.626556
0.659	22.243313	7425.826203
0.66	22.240391	7426.723662
0.661	22.236971	7420.351261
0.662	22.232841	7425.331681
0.663	22.228818	7414.639889
0.664	22.224949	7427.901811
0.665	22.221238	7415.698483
0.666	22.218411	7420.986294
0.667	22.215945	7423.777072
0.668	22.213961	7423.564893
0.669	22.212201	7424.300057
0.67	22.210557	7424.040372
0.671	22.208812	7429.666211
0.672	22.206913	7422.592186
0.673	22.205101	7434.58811
0.674	22.202922	7429.999633
0.675	22.200804	7423.445335
0.676	22.198307	7424.283398
0.677	22.195284	7421.76985
0.678	22.192111	7444.231047
0.679	22.188841	7431.476905
0.68	22.185412	7429.020036
0.681	22.181703	7420.730908
0.682	22.1782	7437.856004
0.683	22.175149	7435.346354
0.684	22.172712	7431.772407
0.685	22.171181	7428.071914
0.686	22.170082	7432.629018
0.687	22.169321	7429.799503
0.688	22.168953	7434.743796
0.689	22.169226	7433.727193
0.69	22.169995	7429.705364
0.691	22.171251	7428.551471
0.692	22.172984	7428.798618
0.693	22.174837	7425.604185
0.694	22.176902	7431.187273
0.695	22.178386	7429.512098
0.696	22.179244	7429.392256
0.697	22.179604	7430.320515
0.698	22.179845	7430.286841
0.699	22.180157	7426.329006
0.7	22.180312	7444.900377
0.701	22.180408	7426.783181
0.702	22.180172	7426.326882
0.703	22.18022	7429.255987
0.704	22.18002	7434.176735
0.705	22.179802	7436.653645
0.706	22.180032	7433.685776
0.707	22.181118	7425.216166
0.708	22.182745	7428.414051
0.709	22.18427	7437.497566
0.71	22.185918	7432.863706
0.711	22.187226	7418.002394
0.712	22.188765	7434.423286
0.713	22.190322	7427.355816
0.714	22.191813	7430.572582
0.715	22.19319	7435.762419
0.716	22.193765	7433.724935
0.717	22.193676	7435.205175
0.718	22.192799	7428.477691
0.719	22.191161	7429.195664
0.72	22.188631	7435.420597
0.721	22.18539	7440.766127
0.722	22.181247	7442.812561
0.723	22.176977	7428.730354
0.724	22.172676	7437.159661
0.725	22.168408	7434.819906
0.726	22.164443	7437.820181
0.727	22.160754	7436.867589
0.728	22.157456	7434.881709
0.729	22.154502	7437.740766
0.73	22.151997	7437.111941
0.731	22.15011	7439.821966
0.732	22.148679	7430.725387
0.733	22.147853	7431.329955
0.734	22.147504	7437.250174
0.735	22.147457	7440.192498
0.736	22.147808	7430.846942
0.737	22.14838	7439.085043
0.738	22.149078	7430.18029
0.739	22.150138	7437.860997
0.74	22.151516	7432.775559
0.741	22.152707	7437.012885
0.742	22.154061	7435.845218
0.743	22.156036	7435.569384
0.744	22.158523	7445.007712
0.745	22.161289	7435.324913
0.746	22.164061	7441.298498
0.747	22.167631	7436.396418
0.748	22.17193	7440.688793
0.749	22.176819	7436.581027
0.75	22.182528	7438.230048
0.751	22.188583	7429.555816
0.752	22.195142	7430.596826
0.753	22.201802	7428.198899
0.754	22.208052	7419.986561
0.755	22.214245	7427.439545
0.756	22.22002	7424.675845
0.757	22.22531	7428.340663
0.758	22.230039	7431.105227
0.759	22.234089	7427.603813
0.76	22.237151	7424.729701
0.761	22.239028	7426.914067
0.762	22.239902	7422.877681
0.763	22.239531	7423.907954
0.764	22.238222	7429.962308
0.765	22.235824	7431.765142
0.766	22.232943	7419.445904
0.767	22.229958	7421.820016
0.768	22.227158	7429.061148
0.769	22.224748	7429.886973
0.77	22.222467	7433.630554
0.771	22.221131	7438.220729
0.772	22.220173	7431.504566
0.773	22.219469	7424.263454
0.774	22.218529	7427.819788
0.775	22.217385	7416.725999
0.776	22.215967	7423.774089
0.777	22.213937	7426.993255
0.778	22.211474	7431.251632
0.779	22.208471	7431.181673
0.78	22.204775	7438.547982
0.781	22.200371	7429.377295
0.782	22.195383	7435.94538
0.783	22.190171	7434.716237
0.784	22.184715	7434.98884
0.785	22.179109	7437.728988
0.786	22.17369	7439.953667
0.787	22.168345	7438.253739
0.788	22.163169	7436.530297
0.789	22.157774	7431.412211
0.79	22.152505	7434.10534
0.791	22.147102	7442.199229
0.792	22.142076	7439.476156
0.793	22.137761	7440.568097
0.794	22.133379	7441.180189
0.795	22.130111	7447.018711
0.796	22.126964	7433.268903
0.797	22.124381	7437.05464
0.798	22.121926	7440.333329
0.799	22.119325	7431.889391
0.8	22.116962	7442.005139
0.801	22.114044	7436.051915
0.802	22.111639	7437.855635
0.803	22.10855	7435.351327
0.804	22.105479	7439.205264
0.805	22.102116	7440.164363
0.806	22.098385	7437.260306
0.807	22.095152	7445.540591
0.808	22.09215	7437.152608
0.809	22.089868	7441.385615
0.81	22.087682	7431.415923
0.811	22.086021	7437.519343
0.812	22.084568	7449.465218
0.813	22.083078	7439.398216
0.814	22.081889	7440.542807
0.815	22.081036	7432.833343
0.816	22.080976	7438.71325
0.817	22.081458	7436.688761
0.818	22.081778	7438.601169
0.819	22.082421	7436.554286
0.82	22.08276	7449.228382
0.821	22.083122	7435.967036
0.822	22.083954	7436.340076
0.823	22.084924	7440.608209
0.824	22.085959	7437.528004
0.825	22.086588	7440.865096
0.826	22.086843	7437.404527
0.827	22.086916	7433.969314
0.828	22.087208	7438.821373
0.829	22.08842	7443.055787
0.83	22.089787	7445.800606
0.831	22.091818	7450.89903
0.832	22.09431	7440.275931
0.833	22.097289	7440.838536
0.834	22.100588	7436.463434
0.835	22.103377	7431.67034
0.836	22.106693	7437.078687
0.837	22.110219	7433.161203
0.838	22.114029	7437.032629
0.839	22.117507	7442.907558
0.84	22.121113	7432.618153
0.841	22.125278	7433.993592
0.842	22.129315	7432.451239
0.843	22.133933	7429.849121
0.844	22.138056	7436.123279
0.845	22.141544	7434.657606
0.846	22.144409	7431.811014
0.847	22.14655	7430.044161
0.848	22.148347	7437.62178
0.849	22.149302	7430.14904
0.85	22.149811	7441.331621
0.851	22.149403	7431.113493
0.852	22.148719	7425.337547
0.853	22.147887	7429.85739
0.854	22.146671	7438.834457
0.855	22.145421	7437.541176
0.856	22.143916	7435.304928
0.857	22.142854	7430.560265
0.858	22.142363	7433.075304
0.859	22.142392	7431.603395
0.86	22.142596	7435.000038
0.861	22.142919	7416.361812
0.862	22.143804	7437.277655
0.863	22.145099	7429.268136
0.864	22.146037	7431.583685
0.865	22.146647	7431.987782
0.866	22.146199	7427.646751
0.867	22.145228	7428.271608
0.868	22.143336	7423.153699
0.869	22.140787	7430.848954
0.87	22.138366	7434.612119
0.871	22.13535	7451.179971
0.872	22.132734	7435.398723
0.873	22.130474	7443.053775
0.874	22.12903	7440.809004
0.875	22.127907	7441.45511
0.876	22.127519	7434.169946
0.877	22.127432	7437.117829
0.878	22.12728	7435.181943
0.879	22.127402	7432.229075
0.88	22.126702	7438.198348
0.881	22.125411	7435.93223
0.882	22.12321	7441.132543
0.883	22.120961	7430.193022
0.884	22.118404	7439.357266
0.885	22.11557	7435.349483
0.886	22.112964	7442.074211
0.887	22.110239	7431.690413
0.888	22.107178	7442.882356
0.889	22.104046	7448.212696
0.89	22.100793	7446.220587
0.891	22.097388	7439.846033
0.892	22.093656	7443.792262
0.893	22.089342	7445.37338
0.894	22.085085	7440.585804
0.895	22.080823	7449.498979
0.896	22.077305	7444.118829
0.897	22.074092	7445.54611
0.898	22.071131	7448.406129
0.899	22.068434	7447.804293
0.9	22.066487	7446.119013
0.901	22.065311	7444.326036
0.902	22.064237	7450.347509
0.903	22.06468	7447.839189
0.904	22.065558	7451.630991
0.905	22.067424	7446.477487
0.906	22.070017	7448.561778
0.907	22.073088	7442.261397
0.908	22.076995	7451.501511
0.909	22.081334	7442.08828
0.91	22.085649	7441.485657
0.911	22.089358	7440.96757
0.912	22.092154	7444.002031
0.913	22.09439	7444.179036
0.914	22.096217	7439.031009
0.915	22.097245	7441.823158
0.916	22.09803	7434.374273
0.917	22.098342	7435.798579
0.918	22.098618	7435.270702
0.919	22.098381	7440.196707
0.92	22.098433	7436.275106
0.921	22.098572	7442.127105
0.922	22.098287	7443.634797
0.923	22.098948	7437.181679
0.924	22.099971	7433.124603
0.925	22.10164	7426.041361
0.926	22.103093	7432.199263
0.927	22.10491	7436.349004
0.928	22.106985	7433.61281
0.929	22.109049	7440.663839
0.93	22.111648	7443.236594
0.931	22.113999	7443.397537
0.932	22.116454	7439.140338
0.933	22.118682	7443.232804
0.934	22.12039	7445.440675
0.935	22.121018	7435.567225
0.936	22.120596	7429.265368
0.937	22.119218	7443.157902
0.938	22.116646	7433.731371
0.939	22.114001	7441.440064
0.94	22.110877	7440.897852
0.941	22.10809	7434.437058
0.942	22.105628	7429.398725
0.943	22.103255	7444.408796
0.944	22.100987	7442.768448
0.945	22.098785	7439.161654
0.946	22.097021	7438.429467
0.947	22.095241	7438.678018
0.948	22.093481	7439.902483
0.949	22.092189	7443.018571
0.95	22.091636	7442.117244
0.951	22.091305	7445.099224
0.952	22.091104	7442.191622
0.953	22.090884	7437.329367
0.954	22.090279	7440.838912
0.955	22.089771	7445.802799
0.956	22.088904	7442.498901
0.957	22.088231	7438.678556
0.958	22.087524	7458.348877
0.959	22.086575	7444.291999
0.96	22.085571	7437.092894
0.961	22.08445	7436.76015
0.962	22.083623	7445.193643
0.963	22.082694	7438.962513
0.964	22.082269	7441.95763
0.965	22.082549	7447.300672
0.966	22.083446	7446.686222
0.967	22.084977	7436.686619
0.968	22.086588	7442.822352
0.969	22.088484	7435.707424
0.97	22.090017	7436.471958
0.971	22.091615	7433.802271
0.972	22.092537	7446.395119
0.973	22.093313	7447.754606
0.974	22.094219	7435.39582
0.975	22.094553	7442.688461
0.976	22.094595	7446.596982
0.977	22.093933	7439.839315
0.978	22.093266	7443.846754
0.979	22.092485	7455.698784
0.98	22.091806	7438.668454
0.981	22.090825	7437.826904
0.982	22.090112	7446.733755
0.983	22.089456	7440.953875
0.984	22.089624	7446.801942
0.985	22.090235	7436.441554
0.986	22.091194	7446.093269
0.987	22.092614	7436.109191
0.988	22.093739	7443.291471
0.989	22.094563	7435.837001
0.99	22.094703	7434.838846
0.991	22.094466	7444.168495
0.992	22.09371	7431.552603
0.993	22.092252	7435.181222
0.994	22.089868	7437.471302
0.995	22.086949	7445.707565
0.996	22.083491	7440.808368
0.997	22.079516	7442.342104
0.998	22.075178	7439.523022
0.999	22.07073	7441.612159
1	22.066797	7438.247016
1.001	22.063074	7448.552811
1.002	22.059722	7436.788694
1.003	22.056654	7443.088663
1.004	22.053419	7441.094131
1.005	22.050331	7439.078873
1.006	22.047033	7441.007477
1.007	22.04436	7452.634335
1.008	22.041995	7447.582467
1.009	22.039909	7441.513094
1.01	22.038037	7445.199622
1.011	22.036421	7441.511026
1.012	22.034527	7432.968286
1.013	22.032484	7444.507207
1.014	22.030453	7453.108807
1.015	22.028378	7448.016477
1.016	22.027152	7449.166291
1.017	22.026296	7451.732278
1.018	22.025369	7440.11877
1.019	22.025043	7445.057188
1.02	22.024698	7448.530472
1.021	22.024405	7448.082042
1.022	22.023457	7459.957436
1.023	22.022157	7437.631693
1.024	22.020819	7447.115062
1.025	22.019532	7454.634084
1.026	22.018456	7449.891512
1.027	22.017033	7451.068864
1.028	22.01611	7448.262037
1.029	22.015469	7445.905062
1.03	22.015072	7446.44988
1.031	22.015463	7440.034392
1.032	22.015992	7445.342725
1.033	22.017514	7446.59805
1.034	22.019901	7447.243277
1.035	22.022839	7444.875722
1.036	22.026394	7442.422103
1.037	22.030337	7438.446379
1.038	22.034434	7437.874113
1.039	22.037961	7439.827976
1.04	22.041308	7441.317664
1.041	22.044113	7440.436591
1.042	22.04612	7438.688468
1.043	22.047482	7441.923335
1.044	22.048265	7437.41037
1.045	22.048795	7440.761322
1.046	22.04873	7443.216859
1.047	22.048306	7440.829588
1.048	22.047711	7439.934129
1.049	22.047046	7440.516246
1.05	22.046463	7445.00132
1.051	22.045861	7440.681863
1.052	22.045462	7439.758981
1.053	22.045484	7438.287984
1.054	22.045767	7436.78061
1.055	22.046518	7422.975654
1.056	22.047516	7442.897121
1.057	22.048984	7440.245584
1.058	22.050853	7436.559647
1.059	22.052704	7439.726042
1.06	22.054587	7429.677316
1.061	22.055848	7434.883369
1.062	22.05601	7444.157226
1.063	22.054985	7436.961133
1.064	22.0538	7432.723017
1.065	22.052434	7440.742381
1.066	22.051137	7442.391397
1.067	22.049636	7439.176002
1.068	22.048191	7436.442078
1.069	22.046777	7437.618184
1.07	22.045401	7446.617538
1.071	22.044443	7444.304892
1.072	22.043202	7438.606737
1.073	22.042611	7445.539351
1.074	22.042563	7442.610345
1.075	22.04318	7440.566908
1.076	22.043817	7433.13867
1.077	22.044555	7442.332079
1.078	22.045587	7439.252227
1.079	22.046783	7442.510252
1.08	22.047827	7441.385761
1.081	22.047999	7438.426001
1.082	22.047092	7437.574215
1.083	22.045212	7440.283109
1.084	22.042681	7436.233089
1.085	22.03987	7436.136416
1.086	22.036589	7445.401761
1.087	22.033211	7448.809339
1.088	22.029485	7443.458183
1.089	22.025963	7444.439471
1.09	22.023086	7444.351977
1.091	22.020245	7440.834448
1.092	22.019132	7442.457775
1.093	22.018228	7457.262709
1.094	22.018187	7453.843351
1.095	22.018297	7451.381614
1.096	22.018759	7452.784901
1.097	22.019407	7453.183722
1.098	22.019818	7448.722756
1.099	22.021677	7451.398814
1.1	22.022751	7445.377275
1.101	22.024402	7453.464672
1.102	22.025756	7451.31847
1.103	22.027032	7453.097408
1.104	22.027539	7451.55869
1.105	22.027794	7455.437414
1.106	22.028182	7446.57593
1.107	22.028049	7447.573115
1.108	22.028102	7460.776598
1.109	22.027462	7453.037324
1.11	22.027056	7452.115427
1.111	22.026303	7453.688387
1.112	22.025876	7450.322999
1.113	22.025134	7458.744628
1.114	22.02388	7445.219629
1.115	22.023345	7448.230054
1.116	22.022128	7453.782243
1.117	22.021488	7455.828878
1.118	22.021032	7451.97818
1.119	22.020967	7448.072995
1.12	22.020826	7445.646229
1.121	22.020463	7448.143288
1.122	22.020337	7452.564485
1.123	22.019605	7448.752455
1.124	22.019642	7452.661669
1.125	22.019925	7453.111379
1.126	22.020605	7452.037842
1.127	22.022293	7456.205634
1.128	22.024312	7451.520108
1.129	22.026452	7447.796219
1.13	22.027953	7460.797411
1.131	22.028926	7445.9828
1.132	22.029787	7443.416112
1.133	22.030291	7450.195685
1.134	22.030719	7451.603885
1.135	22.031036	7446.177381
1.136	22.03151	7451.982643
1.137	22.031968	7452.897316
1.138	22.0319	7453.39604
1.139	22.032184	7449.442021
1.14	22.031982	7446.534602
1.141	22.032217	7437.205266
1.142	22.032601	7445.958822
1.143	22.033197	7442.939797
1.144	22.03376	7443.35054
1.145	22.034376	7444.24303
1.146	22.035255	7448.034567
1.147	22.035958	7441.575624
1.148	22.037245	7448.245928
1.149	22.038639	7447.5619
1.15	22.040052	7447.364635
1.151	22.041115	7458.469781
1.152	22.041775	7449.570455
1.153	22.042303	7447.050277
1.154	22.042613	7452.87843
1.155	22.043262	7452.787814
1.156	22.044212	7447.762138
1.157	22.045192	7453.007452
1.158	22.045924	7448.012291
1.159	22.046141	7452.38567
1.16	22.046599	7455.257461
1.161	22.047231	7443.91554
1.162	22.047821	7441.386695
1.163	22.04799	7432.555856
1.164	22.047534	7446.319566
1.165	22.046553	7444.499539
1.166	22.045188	7447.625898
1.167	22.043399	7444.940022
1.168	22.041585	7444.214754
1.169	22.039338	7452.846536
1.17	22.036495	7444.925636
1.171	22.033719	7447.270457
1.172	22.030432	7465.344083
1.173	22.02718	7442.312302
1.174	22.023917	7445.214441
1.175	22.020636	7452.03354
1.176	22.017395	7455.421919
1.177	22.014034	7452.466322
1.178	22.010472	7454.920856
1.179	22.006749	7446.144378
1.18	22.003387	7446.613909
1.181	22.000755	7449.428017
1.182	21.998487	7448.276842
1.183	21.996384	7451.016987
1.184	21.993791	7443.061278
1.185	21.991345	7461.017348
1.186	21.989141	7458.389351
1.187	21.987288	7446.415883
1.188	21.985371	7453.533744
1.189	21.98348	7445.479901
1.19	21.981257	7447.747533
1.191	21.978249	7451.592632
1.192	21.974819	7458.432542
1.193	21.971153	7457.476598
1.194	21.967985	7457.429778
1.195	21.964774	7446.135338
1.196	21.9626	7464.053433
1.197	21.960374	7457.514247
1.198	21.95872	7455.298742
1.199	21.957671	7449.084545
1.2	21.957551	7458.887067
1.201	21.958293	7457.804941
1.202	21.959333	7456.191823
1.203	21.96066	7453.070613
1.204	21.961269	7453.4749
1.205	21.962337	7440.60417
1.206	21.963779	7456.060147
1.207	21.965986	7450.369613
1.208	21.968293	7461.30112
1.209	21.970818	7447.248321
1.21	21.973396	7455.695522
1.211	21.975518	7453.441967
1.212	21.97798	7451.630249
1.213	21.98062	7449.793712
1.214	21.98376	7452.290937
1.215	21.987005	7460.155651
1.216	21.989977	7450.933313
1.217	21.992865	7455.422776
1.218	21.995661	7451.607366
1.219	21.998633	7450.70287
1.22	22.000915	7448.916303
1.221	22.003029	7448.62109
1.222	22.004796	7446.417184
1.223	22.006489	7449.605706
1.224	22.008537	7447.851826
1.225	22.010597	7449.031923
1.226	22.012903	7430.606225
1.227	22.01483	7440.122796
1.228	22.016694	7443.776819
1.229	22.017723	7446.079622
1.23	22.018786	7452.291846
1.231	22.020124	7444.765679
1.232	22.021216	7453.909641
1.233	22.02156	7445.543639
1.234	22.0209	7441.232263
1.235	22.01952	7442.403588
1.236	22.016892	7452.06717
1.237	22.013149	7444.761238
1.238	22.008362	7446.897744
1.239	22.002296	7446.766328
1.24	21.995962	7454.500957
1.241	21.98933	7447.59862
1.242	21.983317	7451.863415
1.243	21.978236	7456.976674
1.244	21.974007	7460.013837
1.245	21.970384	7453.180397
1.246	21.967131	7458.527625
1.247	21.963937	7457.505826
1.248	21.961488	7463.230142
1.249	21.959744	7462.005853
1.25	21.958119	7450.489778
1.251	21.956103	7455.174938
1.252	21.954391	7457.860499
1.253	21.952449	7459.110414
1.254	21.950639	7456.42743
1.255	21.949364	7465.902048
1.256	21.94741	7457.367733
1.257	21.946358	7457.02528
1.258	21.945487	7463.01851
1.259	21.945362	7462.057362
1.26	21.946014	7466.369816
1.261	21.946721	7465.7818
1.262	21.947834	7454.37267
1.263	21.949606	7458.528874
1.264	21.951849	7461.151271
1.265	21.954841	7465.137037
1.266	21.958195	7453.904266
1.267	21.961472	7456.382329
1.268	21.965896	7453.80724
1.269	21.969949	7453.241271
1.27	21.973844	7455.143688
1.271	21.977665	7457.545726
1.272	21.980941	7458.556001
1.273	21.984876	7449.688591
1.274	21.988701	7452.579404
1.275	21.992307	7449.139961
1.276	21.995749	7449.148532
1.277	21.998987	7450.164196
1.278	22.001641	7453.218612
1.279	22.00381	7448.512031
1.28	22.005444	7458.558942
1.281	22.006865	7451.02105
1.282	22.008487	7447.369466
1.283	22.010021	7459.387525
1.284	22.012067	7447.358789
1.285	22.013879	7451.998623
1.286	22.015494	7456.176627
1.287	22.016674	7452.097614
1.288	22.017856	7451.932427
1.289	22.018901	7458.147295
1.29	22.019853	7443.335612
1.291	22.020237	7445.239148
1.292	22.020107	7453.575243
1.293	22.019569	7446.800258
1.294	22.018263	7446.004177
1.295	22.016845	7446.691458
1.296	22.013587	7440.296413
1.297	22.009854	7451.582128
1.298	22.005253	7456.139143
1.299	21.999723	7450.550703
1.3	21.994813	7459.065093
1.301	21.989734	7458.79589
1.302	21.985212	7476.063307
1.303	21.981161	7454.121705
1.304	21.977791	7452.635229
1.305	21.974554	7454.065902
1.306	21.971415	7454.504377
1.307	21.968123	7458.389155
1.308	21.965695	7459.706839
1.309	21.964265	7460.885106
1.31	21.9629	7462.543631
1.311	21.962127	7455.801478
1.312	21.961129	7458.387418
1.313	21.960856	7441.300421
1.314	21.960938	7456.456936
1.315	21.960831	7453.046848
1.316	21.961112	7457.90047
1.317	21.961579	7462.238814
1.318	21.962167	7451.881628
1.319	21.962926	7465.475775
1.32	21.963232	7461.029327
1.321	21.963228	7459.072819
1.322	21.96282	7458.64046
1.323	21.961713	7467.602351
1.324	21.960549	7460.425498
1.325	21.959052	7458.677428
1.326	21.95716	7465.791724
1.327	21.955495	7460.152874
1.328	21.953628	7469.710052
1.329	21.952203	7464.526878
1.33	21.951089	7459.789631
1.331	21.949806	7458.990248
1.332	21.948815	7459.617921
1.333	21.948035	7469.023322
1.334	21.947751	7454.873656
1.335	21.948325	7466.536419
1.336	21.94892	7462.538979
1.337	21.949245	7465.429332
1.338	21.95014	7457.475656
1.339	21.95074	7459.838282
1.34	21.952109	7456.711399
1.341	21.953159	7453.629036
1.342	21.953842	7452.555053
1.343	21.954617	7454.893251
1.344	21.95457	7452.45342
1.345	21.954666	7457.822209
1.346	21.954739	7458.301253
1.347	21.954331	7468.143997
1.348	21.954394	7451.010147
1.349	21.954864	7454.858698
1.35	21.955715	7463.547179
1.351	21.956887	7460.447734
1.352	21.957697	7454.463058
1.353	21.958236	7456.834278
1.354	21.959005	7456.726786
1.355	21.959733	7466.410962
1.356	21.960965	7441.774468
1.357	21.962324	7453.327533
1.358	21.963613	7463.911855
1.359	21.964842	7451.997283
1.36	21.965544	7459.727866
1.361	21.966065	7464.547969
1.362	21.965996	7458.686133
1.363	21.965811	7463.115616
1.364	21.965317	7457.802406
1.365	21.965339	7464.1601
1.366	21.965634	7463.629713
1.367	21.966245	7460.119327
1.368	21.96672	7457.606556
1.369	21.966982	7461.48428
1.37	21.967011	7459.033698
1.371	21.966384	7456.185627
1.372	21.965492	7451.417263
1.373	21.964578	7458.39496
1.374	21.963934	7453.102737
1.375	21.963086	7457.13551
1.376	21.962452	7451.841865
1.377	21.961671	7449.015227
1.378	21.960997	7454.491467
1.379	21.960175	7454.117036
1.38	21.959947	7459.041806
1.381	21.959576	7453.711401
1.382	21.959125	7463.560092
1.383	21.958577	7458.254479
1.384	21.95783	7459.826734
1.385	21.957168	7462.365606
1.386	21.956334	7457.589193
1.387	21.955572	7458.674205
1.388	21.955118	7461.673357
1.389	21.954844	7459.265143
1.39	21.955216	7465.084635
1.391	21.955588	7458.182659
1.392	21.956498	7451.694877
1.393	21.957066	7455.529786
1.394	21.957411	7456.460161
1.395	21.957895	7460.306846
1.396	21.958063	7454.901329
1.397	21.959135	7453.772964
1.398	21.960165	7448.246956
1.399	21.961572	7460.771981
1.4	21.963194	7459.07755
1.401	21.965237	7458.792213
1.402	21.967223	7453.132574
1.403	21.968607	7456.364364
1.404	21.969383	7455.766643
1.405	21.969285	7449.419649
1.406	21.968612	7455.874339
1.407	21.967061	7459.026751
1.408	21.965325	7454.865595
1.409	21.963061	7465.456891
1.41	21.960244	7447.746615
1.411	21.956773	7456.059983
1.412	21.952797	7455.636765
1.413	21.948381	7459.18926
1.414	21.944486	7458.754606
1.415	21.940723	7457.812318
1.416	21.937219	7453.89807
1.417	21.933947	7458.269474
1.418	21.930902	7463.587584
1.419	21.928275	7450.743677
1.42	21.925368	7457.999725
1.421	21.922979	7456.865566
1.422	21.920781	7458.64042
1.423	21.918859	7459.398084
1.424	21.91749	7464.482199
1.425	21.916353	7471.001829
1.426	21.915504	7462.802376
1.427	21.914575	7458.528544
1.428	21.913326	7466.531609
1.429	21.911526	7462.868708
1.43	21.909551	7461.676671
1.431	21.907804	7469.259998
1.432	21.90602	7468.530553
1.433	21.904659	7459.913427
1.434	21.90318	7464.523672
1.435	21.90187	7466.663776
1.436	21.900647	7465.855926
1.437	21.899732	7463.048033
1.438	21.899255	7468.007621
1.439	21.898901	7473.43924
1.44	21.899151	7467.532787
1.441	21.899768	7469.893113
1.442	21.900657	7469.279573
1.443	21.902072	7465.656977
1.444	21.903671	7460.540758
1.445	21.905182	7470.115533
1.446	21.906725	7474.303632
1.447	21.908103	7467.75039
1.448	21.909374	7467.572853
1.449	21.910087	7461.112535
1.45	21.910492	7466.438149
1.451	21.91083	7464.923079
1.452	21.911056	7469.784464
1.453	21.911189	7469.276486
1.454	21.91147	7471.194506
1.455	21.91223	7463.259634
1.456	21.913821	7467.441143
1.457	21.91581	7461.29183
1.458	21.918407	7465.332675
1.459	21.921624	7463.415534
1.46	21.925339	7458.003768
1.461	21.929198	7469.697113
1.462	21.933074	7465.241428
1.463	21.937	7451.971576
1.464	21.940802	7461.715602
1.465	21.944809	7461.645305
1.466	21.948221	7459.211626
1.467	21.951396	7459.257386
1.468	21.954154	7466.211585
1.469	21.956894	7459.957488
1.47	21.959292	7460.601068
1.471	21.960901	7461.84422
1.472	21.96203	7460.218684
1.473	21.962146	7472.924009
1.474	21.962095	7458.741783
1.475	21.96198	7457.779228
1.476	21.962096	7461.18798
1.477	21.962713	7462.080389
1.478	21.963676	7460.478145
1.479	21.964426	7460.86257
1.48	21.96488	7464.22431
1.481	21.965706	7456.769571
1.482	21.966425	7457.64776
1.483	21.967067	7464.897417
1.484	21.967286	7459.484613
1.485	21.966502	7462.040557
1.486	21.965307	7458.293118
1.487	21.963342	7455.142495
1.488	21.96099	7454.003225
1.489	21.958251	7458.299988
1.49	21.954758	7462.212944
1.491	21.950695	7462.780366
1.492	21.945841	7454.161819
1.493	21.940911	7464.636084
1.494	21.936319	7458.916727
1.495	21.931638	7471.313454
1.496	21.926831	7465.134769
1.497	21.921703	7466.829473
1.498	21.916918	7468.965714
1.499	21.913098	7462.649104
1.5	21.910398	7461.558404
1.501	21.908443	7467.213645
1.502	21.907089	7464.956262
1.503	21.906426	7458.688079
1.504	21.906628	7471.870771
1.505	21.907802	7465.345987
1.506	21.909679	7443.555042
1.507	21.911987	7465.250749
1.508	21.914471	7464.414504
1.509	21.917333	7457.654084
1.51	21.920619	7457.684442
1.511	21.924187	7461.100475
1.512	21.92674	7458.786688
1.513	21.929068	7456.993661
1.514	21.930754	7456.75826
1.515	21.932368	7459.468505
1.516	21.934206	7470.465453
1.517	21.935561	7466.851223
1.518	21.936864	7463.244268
1.519	21.93765	7458.241553
1.52	21.938427	7464.493708
1.521	21.938444	7458.130628
1.522	21.938603	7460.554886
1.523	21.938642	7459.081496
1.524	21.938746	7454.663421
1.525	21.937801	7458.709795
1.526	21.936576	7460.837943
1.527	21.935164	7452.717266
1.528	21.933258	7459.34423
1.529	21.930655	7459.707746
1.53	21.926438	7453.936042
1.531	21.921531	7459.514254
1.532	21.916701	7460.678035
1.533	21.911798	7463.809367
1.534	21.90662	7459.63965
1.535	21.901087	7464.326687
1.536	21.894434	7460.852288
1.537	21.888193	7467.595366
1.538	21.881303	7469.046991
1.539	21.874488	7470.488007
1.54	21.86772	7475.347648
1.541	21.861179	7468.921825
1.542	21.854943	7468.814226
1.543	21.849346	7466.17083
1.544	21.84379	7465.968286
1.545	21.839112	7476.896733
1.546	21.834969	7470.625281
1.547	21.830666	7470.736969
1.548	21.827408	7470.702755
1.549	21.824306	7456.45726
1.55	21.822907	7469.374225
1.551	21.822729	7474.291905
1.552	21.822881	7473.292077
1.553	21.823812	7465.333547
1.554	21.824806	7472.533964
1.555	21.826089	7468.440521
1.556	21.82806	7480.397452
1.557	21.830603	7467.320722
1.558	21.833654	7472.276788
1.559	21.837319	7474.21137
1.56	21.841427	7471.191216
1.561	21.845881	7464.697677
1.562	21.850433	7467.486967
1.563	21.85546	7469.720622
1.564	21.860767	7463.59719
1.565	21.86592	7470.706108
1.566	21.871459	7466.507494
1.567	21.877305	7458.351703
1.568	21.884358	7465.195219
1.569	21.89205	7465.099575
1.57	21.900182	7458.092305
1.571	21.908436	7462.321719
1.572	21.916887	7467.991423
1.573	21.925611	7469.70878
1.574	21.935287	7465.421591
1.575	21.945018	7459.16957
1.576	21.954288	7459.342816
1.577	21.962043	7455.323927
1.578	21.968386	7451.99159
1.579	21.973798	7459.55363
1.58	21.978303	7446.202948
1.581	21.981867	7463.31968
1.582	21.983981	7445.899185
1.583	21.985291	7456.480684
1.584	21.985279	7453.546602
1.585	21.984687	7458.5221
1.586	21.98352	7453.302911
1.587	21.981795	7455.501034
1.588	21.980318	7459.621617
1.589	21.977468	7452.680356
1.59	21.975643	7448.042323
1.591	21.973915	7444.36931
1.592	21.972381	7449.965802
1.593	21.97052	7451.204238
1.594	21.96801	7456.937017
1.595	21.965108	7447.55652
1.596	21.961133	7452.515299
1.597	21.956604	7454.615681
1.598	21.951011	7454.907553
1.599	21.944464	7455.821926
1.6	21.937257	7459.275
1.601	21.929451	7460.854485
1.602	21.921796	7462.902157
1.603	21.914523	7469.300204
1.604	21.907821	7457.025372
1.605	21.901273	7468.214957
1.606	21.89491	7461.275014
1.607	21.888772	7464.089425
1.608	21.882776	7466.394723
1.609	21.87746	7463.222863
1.61	21.872568	7465.863333
1.611	21.868085	7469.914416
1.612	21.864	7476.8457
1.613	21.86013	7465.154004
1.614	21.856633	7462.21747
1.615	21.853785	7467.997324
1.616	21.851487	7472.232594
1.617	21.850219	7469.473973
1.618	21.84904	7476.977945
1.619	21.848142	7474.656947
1.62	21.848129	7472.212383
1.621	21.847733	7473.246181
1.622	21.848411	7475.108614
1.623	21.849194	7475.977966
1.624	21.85049	7476.7755
1.625	21.852715	7475.486202
1.626	21.855486	7478.524103
1.627	21.858865	7466.309241
1.628	21.861725	7474.227701
1.629	21.865478	7463.428481
1.63	21.868657	7469.834636
1.631	21.872477	7472.726126
1.632	21.876811	7472.610061
1.633	21.881132	7466.624413
1.634	21.885565	7477.748242
1.635	21.889874	7460.999786
1.636	21.894653	7467.671711
1.637	21.89897	7469.025913
1.638	21.903444	7464.486722
1.639	21.907073	7461.533503
1.64	21.909783	7468.494367
1.641	21.912687	7463.195862
1.642	21.915295	7462.831565
1.643	21.917866	7459.047538
1.644	21.920169	7464.108026
1.645	21.921699	7470.255046
1.646	21.923594	7469.990421
1.647	21.925161	7458.517921
1.648	21.926986	7461.688042
1.649	21.929548	7478.944676
1.65	21.932358	7463.384254
1.651	21.935522	7462.942352
1.652	21.937825	7461.642068
1.653	21.940197	7463.267966
1.654	21.941338	7465.065785
1.655	21.942485	7460.991274
1.656	21.94378	7450.046002
1.657	21.944468	7457.289228
1.658	21.944442	7471.971548
1.659	21.94356	7460.841075
1.66	21.942739	7461.934332
1.661	21.940909	7459.254181
1.662	21.939034	7460.005419
1.663	21.936431	7463.793979
1.664	21.933622	7461.250608
1.665	21.9306	7464.608398
1.666	21.92746	7458.196848
1.667	21.924386	7474.283447
1.668	21.920777	7465.490973
1.669	21.918439	7462.881779
1.67	21.915716	7467.176434
1.671	21.913517	7464.547765
1.672	21.911935	7462.811558
1.673	21.910515	7467.413518
1.674	21.909914	7466.029565
1.675	21.909612	7460.689562
1.676	21.91015	7462.082254
1.677	21.911483	7469.724706
1.678	21.91327	7449.903609
1.679	21.915369	7461.842682
1.68	21.917246	7462.559124
1.681	21.918915	7460.368898
1.682	21.920485	7462.596011
1.683	21.921883	7461.422188
1.684	21.923138	7456.35401
1.685	21.923623	7464.114916
1.686	21.923902	7468.479588
1.687	21.923259	7463.187123
1.688	21.922212	7465.290587
1.689	21.920996	7463.992478
1.69	21.919601	7474.462473
1.691	21.918619	7467.260239
1.692	21.917151	7465.997408
1.693	21.915877	7460.303815
1.694	21.914062	7458.110863
1.695	21.91251	7466.645646
1.696	21.91179	7462.831842
1.697	21.910997	7470.771188
1.698	21.911284	7460.945355
1.699	21.911703	7457.951057
1.7	21.912499	7463.222085
1.701	21.913479	7463.085265
1.702	21.914327	7460.031026
1.703	21.914624	7461.946741
1.704	21.91391	7467.42864
1.705	21.912254	7464.724253
1.706	21.909674	7466.55233
1.707	21.906562	7465.029933
1.708	21.902908	7463.093832
1.709	21.898859	7470.509255
1.71	21.894603	7471.103734
1.711	21.889608	7473.269195
1.712	21.884587	7467.120457
1.713	21.879098	7461.036928
1.714	21.8742	7464.16755
1.715	21.869395	7466.795804
1.716	21.864302	7465.549926
1.717	21.859802	7464.71061
1.718	21.85542	7470.215518
1.719	21.852313	7470.64945
1.72	21.8503	7476.312667
1.721	21.849214	7470.59289
1.722	21.848692	7477.026604
1.723	21.848471	7471.675232
1.724	21.848951	7476.011772
1.725	21.849974	7468.040339
1.726	21.8518	7468.763901
1.727	21.853745	7469.96016
1.728	21.855489	7475.09876
1.729	21.856099	7475.992079
1.73	21.856421	7473.990032
1.731	21.856726	7473.458148
1.732	21.857316	7475.822074
1.733	21.858082	7472.779349
1.734	21.858751	7468.771696
1.735	21.859143	7471.1634
1.736	21.85925	7463.80907
1.737	21.859243	7462.831492
1.738	21.859768	7470.097546
1.739	21.860395	7467.074147
1.74	21.861192	7463.04852
1.741	21.862315	7473.656019
1.742	21.863374	7453.936612
1.743	21.865214	7470.315452
1.744	21.867541	7470.47978
1.745	21.870769	7463.668128
1.746	21.873975	7462.7311
1.747	21.877372	7465.681683
1.748	21.880761	7470.101292
1.749	21.884166	7466.200639
1.75	21.888358	7466.104514
1.751	21.892655	7471.375751
1.752	21.896867	7461.980358
1.753	21.900508	7489.361348
1.754	21.903987	7469.303842
1.755	21.907547	7463.424424
1.756	21.911098	7464.396331
1.757	21.914822	7466.322729
1.758	21.917881	7472.745512
1.759	21.920679	7467.46188
1.76	21.922902	7466.17281
1.761	21.925028	7453.643545
1.762	21.926928	7474.417714
1.763	21.928838	7461.918712
1.764	21.930686	7458.724827
1.765	21.931791	7464.441984
1.766	21.932169	7469.771397
1.767	21.93214	7471.73257
1.768	21.932209	7470.25509
1.769	21.932803	7463.322111
1.77	21.932761	7460.881515
1.771	21.932343	7462.897114
1.772	21.930817	7471.428148
1.773	21.928438	7468.8246
1.774	21.925714	7476.544411
1.775	21.922895	7462.748798
1.776	21.919987	7467.558521
1.777	21.916356	7460.72622
1.778	21.912331	7470.095651
1.779	21.908222	7466.755145
1.78	21.904289	7468.283042
1.781	21.900653	7464.387266
1.782	21.897466	7471.193182
1.783	21.894803	7460.800689
1.784	21.89246	7462.106557
1.785	21.889835	7470.791114
1.786	21.88806	7460.274666
1.787	21.886948	7467.279929
1.788	21.886697	7468.782908
1.789	21.886494	7462.450488
1.79	21.886538	7468.805055
1.791	21.885929	7463.018615
1.792	21.884912	7468.053643
1.793	21.883752	7463.812058
1.794	21.882718	7472.27438
1.795	21.881508	7469.018293
1.796	21.880093	7482.916097
1.797	21.878319	7472.399454
1.798	21.876559	7468.730938
1.799	21.875098	7464.531338
1.8	21.874278	7472.963773
1.801	21.874066	7469.568379
1.802	21.87416	7472.001791
1.803	21.874654	7475.847083
1.804	21.875018	7471.881941
1.805	21.87582	7469.812799
1.806	21.876055	7472.226352
1.807	21.877313	7464.71126
1.808	21.878703	7465.495812
1.809	21.880513	7469.157344
1.81	21.881529	7471.461839
1.811	21.882656	7470.325885
1.812	21.883647	7471.655364
1.813	21.883809	7470.164848
1.814	21.882647	7469.348564
1.815	21.880734	7469.615653
1.816	21.878211	7471.435983
1.817	21.875063	7487.532955
1.818	21.871462	7473.846456
1.819	21.867814	7475.334434
1.82	21.864345	7474.351126
1.821	21.860567	7469.007341
1.822	21.85744	7466.997632
1.823	21.853989	7467.968885
1.824	21.8509	7476.228989
1.825	21.84782	7470.298367
1.826	21.84528	7471.142309
1.827	21.843114	7479.762826
1.828	21.841186	7471.224861
1.829	21.839444	7476.850391
1.83	21.838769	7472.051765
1.831	21.838252	7469.67742
1.832	21.838924	7473.987255
1.833	21.840139	7474.30682
1.834	21.841555	7476.555504
1.835	21.84242	7472.031114
1.836	21.842575	7481.795201
1.837	21.842967	7477.826144
1.838	21.841988	7485.302286
1.839	21.841737	7480.933728
1.84	21.841201	7478.562119
1.841	21.841434	7482.44387
1.842	21.840761	7478.134329
1.843	21.841223	7478.559062
1.844	21.841878	7481.892575
1.845	21.842263	7482.817376
1.846	21.843811	7474.772571
1.847	21.845584	7476.482065
1.848	21.848596	7477.040055
1.849	21.851511	7484.461474
1.85	21.856074	7464.741925
1.851	21.860336	7472.953944
1.852	21.865155	7471.791619
1.853	21.870182	7475.982334
1.854	21.874445	7468.536932
1.855	21.87814	7467.531602
1.856	21.880958	7472.030853
1.857	21.883675	7469.694209
1.858	21.885644	7474.801445
1.859	21.888057	7464.189378
1.86	21.890386	7463.864116
1.861	21.892457	7466.999785
1.862	21.894239	7466.750939
1.863	21.896121	7465.509498
1.864	21.898196	7466.687639
1.865	21.900317	7465.902046
1.866	21.903169	7460.121569
1.867	21.906275	7459.687827
1.868	21.909849	7456.252882
1.869	21.913085	7468.522404
1.87	21.91603	7460.771858
1.871	21.918932	7444.709282
1.872	21.921503	7461.96452
1.873	21.923991	7461.617063
1.874	21.926095	7458.387545
1.875	21.927964	7463.019305
1.876	21.92948	7463.296932
1.877	21.930736	7462.63221
1.878	21.931111	7463.069168
1.879	21.93101	7464.551025
1.88	21.929945	7456.381938
1.881	21.92811	7469.359663
1.882	21.926217	7459.838328
1.883	21.923678	7466.553744
1.884	21.920945	7466.935426
1.885	21.917555	7464.473103
1.886	21.914108	7462.018867
1.887	21.910216	7456.690869
1.888	21.906145	7462.152417
1.889	21.902314	7472.473228
1.89	21.898181	7462.775401
1.891	21.894369	7463.79706
1.892	21.890316	7473.170279
1.893	21.886184	7470.322481
1.894	21.881995	7469.928856
1.895	21.877127	7461.80154
1.896	21.872553	7469.7797
1.897	21.867807	7474.356925
1.898	21.862996	7466.71095
1.899	21.857224	7460.177688
1.9	21.850785	7462.055628
1.901	21.843899	7469.867306
1.902	21.836644	7470.391382
1.903	21.829148	7476.820443
1.904	21.821748	7480.78975
1.905	21.815067	7490.530098
1.906	21.808524	7485.083144
1.907	21.802839	7480.005654
1.908	21.797761	7479.736303
1.909	21.793373	7479.859843
1.91	21.789936	7487.679171
1.911	21.787095	7483.6724
1.912	21.785114	7479.056105
1.913	21.78417	7487.016601
1.914	21.783624	7484.157152
1.915	21.784124	7479.194395
1.916	21.785039	7487.873856
1.917	21.786755	7484.209102
1.918	21.78929	7492.172959
1.919	21.792021	7480.537943
1.92	21.79513	7485.975124
1.921	21.798024	7486.060239
1.922	21.800993	7483.688448
1.923	21.803542	7482.35384
1.924	21.805742	7485.47167
1.925	21.808314	7486.091005
1.926	21.810212	7480.93308
1.927	21.812787	7475.68043
1.928	21.815375	7481.190474
1.929	21.818067	7481.793073
1.93	21.821102	7474.029936
1.931	21.824125	7476.543423
1.932	21.827106	7472.702105
1.933	21.830352	7472.248702
1.934	21.833441	7466.924413
1.935	21.836741	7472.335008
1.936	21.839957	7471.885781
1.937	21.842846	7471.97164
1.938	21.845966	7469.089405
1.939	21.848508	7471.18081
1.94	21.851238	7471.778067
1.941	21.853825	7470.438169
1.942	21.85605	7469.148919
1.943	21.857898	7465.465787
1.944	21.859329	7466.733834
1.945	21.860189	7467.102983
1.946	21.860621	7476.828375
1.947	21.860891	7464.558392
1.948	21.861039	7466.984179
1.949	21.861671	7466.406697
1.95	21.861838	7471.765478
1.951	21.863183	7473.534798
1.952	21.864422	7474.829661
1.953	21.865594	7468.794572
1.954	21.866833	7471.067875
1.955	21.867789	7469.955877
1.956	21.868855	7464.914037
1.957	21.869542	7468.732466
1.958	21.870395	7460.295277
1.959	21.870999	7460.210956
1.96	21.871501	7467.480207
1.961	21.871895	7465.468093
1.962	21.871947	7465.460709
1.963	21.871384	7469.453666
1.964	21.870625	7464.666833
1.965	21.87003	7476.982188
1.966	21.869309	7473.657834
1.967	21.868877	7467.357474
1.968	21.868414	7484.547179
1.969	21.867843	7469.948321
1.97	21.866913	7469.099549
1.971	21.865858	7465.821828
1.972	21.864778	7463.03695
1.973	21.863654	7464.172619
1.974	21.863333	7467.153117
1.975	21.862966	7467.204317
1.976	21.862783	7472.612061
1.977	21.86253	7460.415178
1.978	21.861879	7461.974073
1.979	21.861199	7455.708161
1.98	21.860545	7475.860367
1.981	21.86018	7468.082811
1.982	21.860219	7470.034438
1.983	21.860537	7465.586475
1.984	21.860658	7468.015976
1.985	21.860641	7468.018388
1.986	21.859925	7472.52201
1.987	21.859494	7462.796433
1.988	21.858682	7474.163463
1.989	21.857604	7482.631965
1.99	21.856954	7469.511968
1.991	21.856258	7466.673353